LabVIEW Measurement	
Writer_Version	2
Reader_Version	2
Separator	Tab
Decimal_Separator	.
Multi_Headings	Yes
X_Columns	One
Time_Pref	Absolute
Operator	labuser
Date	1904/01/01
Time	01:00:00
***End_of_Header***	
	
Channels	1	
Samples	10000	
Date	2022/05/23	
Time	17:25:14.122789799999936575	
Y_Unit_Label	Volts	
X_Dimension	Time	
X0	0.0000000000000000E+0	
Delta_X	0.000500	
***End_of_Header***		
X_Value	Voltage	Comment
0.000000	1.329458
0.000500	1.327865
0.001000	1.329139
0.001500	1.327865
0.002000	1.328821
0.002500	1.327865
0.003000	1.328184
0.003500	1.328821
0.004000	1.329139
0.004500	1.328502
0.005000	1.328502
0.005500	1.328184
0.006000	1.328184
0.006500	1.329458
0.007000	1.328821
0.007500	1.328184
0.008000	1.327547
0.008500	1.328821
0.009000	1.328821
0.009500	1.329139
0.010000	1.327865
0.010500	1.328502
0.011000	1.328184
0.011500	1.329139
0.012000	1.328502
0.012500	1.328502
0.013000	1.328502
0.013500	1.328184
0.014000	1.328821
0.014500	1.328821
0.015000	1.328821
0.015500	1.328821
0.016000	1.329776
0.016500	1.327865
0.017000	1.328821
0.017500	1.328502
0.018000	1.328821
0.018500	1.328502
0.019000	1.329139
0.019500	1.328502
0.020000	1.329139
0.020500	1.327547
0.021000	1.329139
0.021500	1.328821
0.022000	1.327865
0.022500	1.329139
0.023000	1.328184
0.023500	1.328502
0.024000	1.329139
0.024500	1.328821
0.025000	1.328502
0.025500	1.328184
0.026000	1.328184
0.026500	1.329139
0.027000	1.327865
0.027500	1.328821
0.028000	1.327865
0.028500	1.329139
0.029000	1.328184
0.029500	1.329458
0.030000	1.329139
0.030500	1.328184
0.031000	1.328821
0.031500	1.328184
0.032000	1.328821
0.032500	1.329139
0.033000	1.328821
0.033500	1.328184
0.034000	1.328184
0.034500	1.327865
0.035000	1.329776
0.035500	1.328184
0.036000	1.329139
0.036500	1.328184
0.037000	1.329139
0.037500	1.328502
0.038000	1.330413
0.038500	1.328821
0.039000	1.329139
0.039500	1.328184
0.040000	1.327865
0.040500	1.329139
0.041000	1.329139
0.041500	1.328821
0.042000	1.329139
0.042500	1.328184
0.043000	1.327865
0.043500	1.329139
0.044000	1.329139
0.044500	1.328821
0.045000	1.328184
0.045500	1.328821
0.046000	1.327865
0.046500	1.328821
0.047000	1.328821
0.047500	1.329139
0.048000	1.328184
0.048500	1.328821
0.049000	1.328821
0.049500	1.328821
0.050000	1.328821
0.050500	1.328502
0.051000	1.328821
0.051500	1.329139
0.052000	1.329458
0.052500	1.328184
0.053000	1.328821
0.053500	1.328184
0.054000	1.329139
0.054500	1.329139
0.055000	1.329458
0.055500	1.328184
0.056000	1.329458
0.056500	1.327865
0.057000	1.328821
0.057500	1.328821
0.058000	1.328821
0.058500	1.328821
0.059000	1.328821
0.059500	1.328821
0.060000	1.328821
0.060500	1.329139
0.061000	1.329139
0.061500	1.328821
0.062000	1.328502
0.062500	1.329458
0.063000	1.328821
0.063500	1.329139
0.064000	1.328502
0.064500	1.329139
0.065000	1.328502
0.065500	1.328502
0.066000	1.328821
0.066500	1.328821
0.067000	1.328821
0.067500	1.328821
0.068000	1.328502
0.068500	1.329139
0.069000	1.329139
0.069500	1.329139
0.070000	1.329776
0.070500	1.328184
0.071000	1.328502
0.071500	1.329139
0.072000	1.329139
0.072500	1.328184
0.073000	1.329139
0.073500	1.327865
0.074000	1.329139
0.074500	1.328821
0.075000	1.329139
0.075500	1.329139
0.076000	1.329139
0.076500	1.328821
0.077000	1.328821
0.077500	1.329139
0.078000	1.329139
0.078500	1.329139
0.079000	1.328821
0.079500	1.329139
0.080000	1.329139
0.080500	1.329139
0.081000	1.328184
0.081500	1.329458
0.082000	1.328184
0.082500	1.329139
0.083000	1.328821
0.083500	1.329139
0.084000	1.328502
0.084500	1.328821
0.085000	1.329139
0.085500	1.329458
0.086000	1.328821
0.086500	1.329458
0.087000	1.328821
0.087500	1.328184
0.088000	1.328821
0.088500	1.329139
0.089000	1.330095
0.089500	1.328821
0.090000	1.329776
0.090500	1.327865
0.091000	1.329458
0.091500	1.328502
0.092000	1.329139
0.092500	1.329139
0.093000	1.328821
0.093500	1.328502
0.094000	1.328821
0.094500	1.329139
0.095000	1.328821
0.095500	1.328184
0.096000	1.329139
0.096500	1.328502
0.097000	1.328502
0.097500	1.329139
0.098000	1.329139
0.098500	1.329139
0.099000	1.328502
0.099500	1.329139
0.100000	1.328821
0.100500	1.329458
0.101000	1.328502
0.101500	1.329458
0.102000	1.328184
0.102500	1.329458
0.103000	1.328502
0.103500	1.329139
0.104000	1.328502
0.104500	1.329139
0.105000	1.329139
0.105500	1.328821
0.106000	1.328821
0.106500	1.329458
0.107000	1.329776
0.107500	1.328821
0.108000	1.329139
0.108500	1.328821
0.109000	1.329139
0.109500	1.328502
0.110000	1.329776
0.110500	1.328184
0.111000	1.329139
0.111500	1.329139
0.112000	1.329458
0.112500	1.328821
0.113000	1.329139
0.113500	1.328502
0.114000	1.328821
0.114500	1.329139
0.115000	1.329139
0.115500	1.329139
0.116000	1.328502
0.116500	1.328502
0.117000	1.329139
0.117500	1.329458
0.118000	1.329139
0.118500	1.329458
0.119000	1.328184
0.119500	1.328184
0.120000	1.328821
0.120500	1.329139
0.121000	1.329139
0.121500	1.329139
0.122000	1.328184
0.122500	1.329139
0.123000	1.328502
0.123500	1.328821
0.124000	1.327865
0.124500	1.328821
0.125000	1.328184
0.125500	1.328821
0.126000	1.328821
0.126500	1.329139
0.127000	1.328184
0.127500	1.327865
0.128000	1.328821
0.128500	1.328821
0.129000	1.329776
0.129500	1.328184
0.130000	1.329776
0.130500	1.327865
0.131000	1.329458
0.131500	1.328502
0.132000	1.329139
0.132500	1.327865
0.133000	1.328502
0.133500	1.328184
0.134000	1.328502
0.134500	1.328502
0.135000	1.328821
0.135500	1.328821
0.136000	1.328184
0.136500	1.328502
0.137000	1.328184
0.137500	1.328821
0.138000	1.327865
0.138500	1.329776
0.139000	1.328184
0.139500	1.329139
0.140000	1.328184
0.140500	1.329458
0.141000	1.328821
0.141500	1.328502
0.142000	1.328184
0.142500	1.328821
0.143000	1.329139
0.143500	1.329458
0.144000	1.328502
0.144500	1.328821
0.145000	1.328821
0.145500	1.327865
0.146000	1.329458
0.146500	1.328502
0.147000	1.329139
0.147500	1.327865
0.148000	1.328502
0.148500	1.328821
0.149000	1.329139
0.149500	1.328502
0.150000	1.328821
0.150500	1.328184
0.151000	1.328821
0.151500	1.329139
0.152000	1.328184
0.152500	1.328502
0.153000	1.328821
0.153500	1.328184
0.154000	1.327865
0.154500	1.329458
0.155000	1.328184
0.155500	1.329139
0.156000	1.328502
0.156500	1.328821
0.157000	1.329139
0.157500	1.328821
0.158000	1.328502
0.158500	1.329139
0.159000	1.328184
0.159500	1.328821
0.160000	1.328502
0.160500	1.328821
0.161000	1.328502
0.161500	1.328184
0.162000	1.328184
0.162500	1.328821
0.163000	1.329139
0.163500	1.328821
0.164000	1.329139
0.164500	1.328184
0.165000	1.328821
0.165500	1.328821
0.166000	1.329458
0.166500	1.329139
0.167000	1.329458
0.167500	1.328821
0.168000	1.329139
0.168500	1.328821
0.169000	1.329139
0.169500	1.328821
0.170000	1.327865
0.170500	1.327865
0.171000	1.328821
0.171500	1.329139
0.172000	1.327865
0.172500	1.329139
0.173000	1.328184
0.173500	1.328821
0.174000	1.328184
0.174500	1.329458
0.175000	1.328502
0.175500	1.329458
0.176000	1.328184
0.176500	1.329139
0.177000	1.327865
0.177500	1.329139
0.178000	1.328184
0.178500	1.329458
0.179000	1.328502
0.179500	1.328502
0.180000	1.329139
0.180500	1.328821
0.181000	1.328821
0.181500	1.327547
0.182000	1.328821
0.182500	1.327865
0.183000	1.329776
0.183500	1.327865
0.184000	1.328821
0.184500	1.328184
0.185000	1.328821
0.185500	1.329139
0.186000	1.329139
0.186500	1.329139
0.187000	1.328821
0.187500	1.328502
0.188000	1.328821
0.188500	1.328821
0.189000	1.329139
0.189500	1.328184
0.190000	1.328821
0.190500	1.328502
0.191000	1.328502
0.191500	1.329458
0.192000	1.328184
0.192500	1.329139
0.193000	1.327547
0.193500	1.329139
0.194000	1.328502
0.194500	1.329458
0.195000	1.328502
0.195500	1.328502
0.196000	1.328184
0.196500	1.329139
0.197000	1.328821
0.197500	1.329139
0.198000	1.327865
0.198500	1.328184
0.199000	1.328502
0.199500	1.328821
0.200000	1.329139
0.200500	1.328184
0.201000	1.329139
0.201500	1.328502
0.202000	1.329139
0.202500	1.328821
0.203000	1.329458
0.203500	1.329458
0.204000	1.329139
0.204500	1.328184
0.205000	1.329139
0.205500	1.328184
0.206000	1.329458
0.206500	1.328821
0.207000	1.328821
0.207500	1.328502
0.208000	1.328502
0.208500	1.329139
0.209000	1.328821
0.209500	1.328821
0.210000	1.327865
0.210500	1.328821
0.211000	1.328502
0.211500	1.329139
0.212000	1.328502
0.212500	1.329139
0.213000	1.327865
0.213500	1.329139
0.214000	1.328184
0.214500	1.329139
0.215000	1.328184
0.215500	1.328821
0.216000	1.328502
0.216500	1.328821
0.217000	1.328821
0.217500	1.329458
0.218000	1.328821
0.218500	1.329139
0.219000	1.328821
0.219500	1.328184
0.220000	1.329139
0.220500	1.328821
0.221000	1.329458
0.221500	1.327865
0.222000	1.328184
0.222500	1.329139
0.223000	1.329458
0.223500	1.329139
0.224000	1.329458
0.224500	1.328821
0.225000	1.328184
0.225500	1.328184
0.226000	1.328821
0.226500	1.327865
0.227000	1.328502
0.227500	1.328502
0.228000	1.327865
0.228500	1.329458
0.229000	1.328821
0.229500	1.328821
0.230000	1.327865
0.230500	1.328821
0.231000	1.328502
0.231500	1.329458
0.232000	1.328502
0.232500	1.329139
0.233000	1.327865
0.233500	1.328502
0.234000	1.328184
0.234500	1.329139
0.235000	1.328184
0.235500	1.328502
0.236000	1.328184
0.236500	1.327547
0.237000	1.328821
0.237500	1.329458
0.238000	1.328502
0.238500	1.329139
0.239000	1.328184
0.239500	1.328502
0.240000	1.329776
0.240500	1.327865
0.241000	1.328821
0.241500	1.327865
0.242000	1.328821
0.242500	1.328502
0.243000	1.329776
0.243500	1.328821
0.244000	1.329139
0.244500	1.328184
0.245000	1.328502
0.245500	1.328821
0.246000	1.328821
0.246500	1.329139
0.247000	1.328821
0.247500	1.328821
0.248000	1.328184
0.248500	1.329776
0.249000	1.327865
0.249500	1.329139
0.250000	1.327547
0.250500	1.328502
0.251000	1.327865
0.251500	1.329139
0.252000	1.328821
0.252500	1.329139
0.253000	1.328184
0.253500	1.328821
0.254000	1.328502
0.254500	1.329139
0.255000	1.328502
0.255500	1.328184
0.256000	1.328184
0.256500	1.328184
0.257000	1.329139
0.257500	1.328821
0.258000	1.328821
0.258500	1.327865
0.259000	1.328821
0.259500	1.328502
0.260000	1.329139
0.260500	1.328184
0.261000	1.328821
0.261500	1.328184
0.262000	1.328184
0.262500	1.328184
0.263000	1.328821
0.263500	1.328821
0.264000	1.328502
0.264500	1.327865
0.265000	1.328821
0.265500	1.328184
0.266000	1.329139
0.266500	1.328502
0.267000	1.328502
0.267500	1.328821
0.268000	1.327865
0.268500	1.329458
0.269000	1.327865
0.269500	1.328821
0.270000	1.328184
0.270500	1.328821
0.271000	1.327865
0.271500	1.328821
0.272000	1.327865
0.272500	1.329139
0.273000	1.327547
0.273500	1.328502
0.274000	1.328184
0.274500	1.328821
0.275000	1.327865
0.275500	1.327865
0.276000	1.328502
0.276500	1.328502
0.277000	1.329139
0.277500	1.328821
0.278000	1.328502
0.278500	1.328184
0.279000	1.328184
0.279500	1.328502
0.280000	1.328821
0.280500	1.328502
0.281000	1.329139
0.281500	1.328502
0.282000	1.328821
0.282500	1.327865
0.283000	1.329139
0.283500	1.328821
0.284000	1.327865
0.284500	1.327865
0.285000	1.327865
0.285500	1.328821
0.286000	1.329139
0.286500	1.329139
0.287000	1.327865
0.287500	1.327865
0.288000	1.327865
0.288500	1.328502
0.289000	1.328184
0.289500	1.328821
0.290000	1.327865
0.290500	1.328502
0.291000	1.327865
0.291500	1.329458
0.292000	1.327865
0.292500	1.329139
0.293000	1.327865
0.293500	1.328502
0.294000	1.328502
0.294500	1.329139
0.295000	1.328184
0.295500	1.328184
0.296000	1.328184
0.296500	1.328184
0.297000	1.329458
0.297500	1.328184
0.298000	1.328821
0.298500	1.327228
0.299000	1.328821
0.299500	1.328184
0.300000	1.328821
0.300500	1.327865
0.301000	1.328184
0.301500	1.327865
0.302000	1.328821
0.302500	1.328821
0.303000	1.328502
0.303500	1.328502
0.304000	1.327865
0.304500	1.327865
0.305000	1.328184
0.305500	1.329458
0.306000	1.328184
0.306500	1.328502
0.307000	1.328184
0.307500	1.328502
0.308000	1.327547
0.308500	1.329139
0.309000	1.327865
0.309500	1.328184
0.310000	1.327228
0.310500	1.328184
0.311000	1.327865
0.311500	1.329139
0.312000	1.328821
0.312500	1.328821
0.313000	1.327865
0.313500	1.328821
0.314000	1.328821
0.314500	1.328502
0.315000	1.328821
0.315500	1.327865
0.316000	1.328821
0.316500	1.328502
0.317000	1.329458
0.317500	1.328821
0.318000	1.328184
0.318500	1.328184
0.319000	1.327865
0.319500	1.328821
0.320000	1.330095
0.320500	1.328184
0.321000	1.329139
0.321500	1.328502
0.322000	1.328502
0.322500	1.328184
0.323000	1.329139
0.323500	1.328821
0.324000	1.328821
0.324500	1.328184
0.325000	1.328821
0.325500	1.328821
0.326000	1.328184
0.326500	1.328184
0.327000	1.327865
0.327500	1.328821
0.328000	1.328184
0.328500	1.328821
0.329000	1.329139
0.329500	1.329139
0.330000	1.327865
0.330500	1.328821
0.331000	1.328821
0.331500	1.328821
0.332000	1.328184
0.332500	1.327865
0.333000	1.328184
0.333500	1.328821
0.334000	1.328502
0.334500	1.328184
0.335000	1.328821
0.335500	1.327865
0.336000	1.328821
0.336500	1.327865
0.337000	1.329139
0.337500	1.328502
0.338000	1.328821
0.338500	1.328821
0.339000	1.327865
0.339500	1.328502
0.340000	1.329139
0.340500	1.328184
0.341000	1.328184
0.341500	1.328502
0.342000	1.328502
0.342500	1.329458
0.343000	1.328821
0.343500	1.328821
0.344000	1.328184
0.344500	1.328821
0.345000	1.328184
0.345500	1.329776
0.346000	1.327865
0.346500	1.328821
0.347000	1.327865
0.347500	1.329139
0.348000	1.328502
0.348500	1.329458
0.349000	1.328821
0.349500	1.328821
0.350000	1.328821
0.350500	1.329139
0.351000	1.329139
0.351500	1.328821
0.352000	1.328502
0.352500	1.328502
0.353000	1.328821
0.353500	1.328821
0.354000	1.329458
0.354500	1.329139
0.355000	1.328502
0.355500	1.327547
0.356000	1.329139
0.356500	1.327865
0.357000	1.329139
0.357500	1.328502
0.358000	1.328184
0.358500	1.327547
0.359000	1.328821
0.359500	1.328184
0.360000	1.328821
0.360500	1.329139
0.361000	1.327547
0.361500	1.328184
0.362000	1.327865
0.362500	1.328821
0.363000	1.328184
0.363500	1.328821
0.364000	1.327547
0.364500	1.329458
0.365000	1.327547
0.365500	1.329139
0.366000	1.328184
0.366500	1.328821
0.367000	1.328184
0.367500	1.328502
0.368000	1.328821
0.368500	1.328502
0.369000	1.329458
0.369500	1.328821
0.370000	1.328502
0.370500	1.328502
0.371000	1.329139
0.371500	1.328821
0.372000	1.329458
0.372500	1.328502
0.373000	1.328821
0.373500	1.327865
0.374000	1.329139
0.374500	1.328184
0.375000	1.329139
0.375500	1.327865
0.376000	1.327865
0.376500	1.328184
0.377000	1.329458
0.377500	1.328502
0.378000	1.328821
0.378500	1.328184
0.379000	1.328184
0.379500	1.329139
0.380000	1.328821
0.380500	1.329139
0.381000	1.327865
0.381500	1.328502
0.382000	1.328184
0.382500	1.328821
0.383000	1.328184
0.383500	1.327865
0.384000	1.327547
0.384500	1.328821
0.385000	1.328821
0.385500	1.329139
0.386000	1.328821
0.386500	1.328821
0.387000	1.328184
0.387500	1.328502
0.388000	1.328184
0.388500	1.328821
0.389000	1.328821
0.389500	1.328502
0.390000	1.328502
0.390500	1.328502
0.391000	1.329139
0.391500	1.329458
0.392000	1.329458
0.392500	1.328184
0.393000	1.328821
0.393500	1.327865
0.394000	1.329139
0.394500	1.328821
0.395000	1.328821
0.395500	1.327865
0.396000	1.329139
0.396500	1.328821
0.397000	1.329139
0.397500	1.328821
0.398000	1.328502
0.398500	1.328184
0.399000	1.328821
0.399500	1.329139
0.400000	1.328821
0.400500	1.328184
0.401000	1.328502
0.401500	1.328821
0.402000	1.328821
0.402500	1.328821
0.403000	1.329139
0.403500	1.329139
0.404000	1.327547
0.404500	1.329139
0.405000	1.328821
0.405500	1.329139
0.406000	1.328184
0.406500	1.328502
0.407000	1.328821
0.407500	1.328821
0.408000	1.328184
0.408500	1.329776
0.409000	1.329139
0.409500	1.329139
0.410000	1.328502
0.410500	1.329458
0.411000	1.329458
0.411500	1.328184
0.412000	1.327865
0.412500	1.327865
0.413000	1.329139
0.413500	1.328502
0.414000	1.329458
0.414500	1.328821
0.415000	1.329458
0.415500	1.328502
0.416000	1.329139
0.416500	1.328821
0.417000	1.329139
0.417500	1.329458
0.418000	1.329139
0.418500	1.327865
0.419000	1.328821
0.419500	1.328821
0.420000	1.329139
0.420500	1.328821
0.421000	1.328821
0.421500	1.328821
0.422000	1.328821
0.422500	1.328821
0.423000	1.329139
0.423500	1.328821
0.424000	1.327865
0.424500	1.328502
0.425000	1.328502
0.425500	1.329139
0.426000	1.328502
0.426500	1.329139
0.427000	1.328821
0.427500	1.328821
0.428000	1.328502
0.428500	1.329139
0.429000	1.328821
0.429500	1.329139
0.430000	1.328502
0.430500	1.328502
0.431000	1.329776
0.431500	1.328184
0.432000	1.329139
0.432500	1.327865
0.433000	1.329139
0.433500	1.328502
0.434000	1.329139
0.434500	1.328184
0.435000	1.328502
0.435500	1.327865
0.436000	1.328821
0.436500	1.328502
0.437000	1.329139
0.437500	1.328821
0.438000	1.328502
0.438500	1.328821
0.439000	1.328821
0.439500	1.329139
0.440000	1.328821
0.440500	1.329139
0.441000	1.327865
0.441500	1.328184
0.442000	1.328184
0.442500	1.328502
0.443000	1.329139
0.443500	1.329139
0.444000	1.328502
0.444500	1.328821
0.445000	1.329139
0.445500	1.329139
0.446000	1.328502
0.446500	1.328184
0.447000	1.328184
0.447500	1.328821
0.448000	1.329139
0.448500	1.329139
0.449000	1.328821
0.449500	1.328821
0.450000	1.328184
0.450500	1.329139
0.451000	1.328502
0.451500	1.328502
0.452000	1.329458
0.452500	1.327865
0.453000	1.329458
0.453500	1.328184
0.454000	1.329776
0.454500	1.328502
0.455000	1.329139
0.455500	1.327865
0.456000	1.328502
0.456500	1.329139
0.457000	1.329776
0.457500	1.328821
0.458000	1.328502
0.458500	1.329139
0.459000	1.329139
0.459500	1.329458
0.460000	1.328821
0.460500	1.328821
0.461000	1.327547
0.461500	1.328821
0.462000	1.328184
0.462500	1.329458
0.463000	1.327865
0.463500	1.329139
0.464000	1.327865
0.464500	1.329139
0.465000	1.327865
0.465500	1.329458
0.466000	1.328502
0.466500	1.329139
0.467000	1.328821
0.467500	1.328821
0.468000	1.328821
0.468500	1.329139
0.469000	1.328821
0.469500	1.328184
0.470000	1.329139
0.470500	1.328502
0.471000	1.329776
0.471500	1.328821
0.472000	1.329139
0.472500	1.327865
0.473000	1.328821
0.473500	1.328502
0.474000	1.328821
0.474500	1.328502
0.475000	1.328821
0.475500	1.327865
0.476000	1.328502
0.476500	1.328184
0.477000	1.329139
0.477500	1.328502
0.478000	1.328184
0.478500	1.328821
0.479000	1.329139
0.479500	1.329458
0.480000	1.329458
0.480500	1.329776
0.481000	1.327865
0.481500	1.328821
0.482000	1.328821
0.482500	1.329139
0.483000	1.328821
0.483500	1.329458
0.484000	1.328502
0.484500	1.329458
0.485000	1.328502
0.485500	1.329458
0.486000	1.328502
0.486500	1.328502
0.487000	1.329139
0.487500	1.329458
0.488000	1.329139
0.488500	1.329458
0.489000	1.329139
0.489500	1.328502
0.490000	1.328821
0.490500	1.328502
0.491000	1.329458
0.491500	1.329139
0.492000	1.329139
0.492500	1.328502
0.493000	1.329458
0.493500	1.328502
0.494000	1.329458
0.494500	1.328502
0.495000	1.329458
0.495500	1.328184
0.496000	1.328821
0.496500	1.328821
0.497000	1.329776
0.497500	1.329139
0.498000	1.327865
0.498500	1.329139
0.499000	1.329139
0.499500	1.330095
0.500000	1.328502
0.500500	1.329139
0.501000	1.327865
0.501500	1.328821
0.502000	1.328821
0.502500	1.329139
0.503000	1.328821
0.503500	1.329458
0.504000	1.328502
0.504500	1.328821
0.505000	1.328184
0.505500	1.329458
0.506000	1.329139
0.506500	1.329458
0.507000	1.327865
0.507500	1.329139
0.508000	1.328821
0.508500	1.329139
0.509000	1.328821
0.509500	1.328502
0.510000	1.329139
0.510500	1.328502
0.511000	1.330095
0.511500	1.328821
0.512000	1.328821
0.512500	1.327547
0.513000	1.328821
0.513500	1.328184
0.514000	1.329776
0.514500	1.328184
0.515000	1.328821
0.515500	1.327865
0.516000	1.329139
0.516500	1.328184
0.517000	1.328821
0.517500	1.329139
0.518000	1.328821
0.518500	1.328821
0.519000	1.329139
0.519500	1.329139
0.520000	1.328821
0.520500	1.329139
0.521000	1.327865
0.521500	1.329458
0.522000	1.328502
0.522500	1.329458
0.523000	1.328184
0.523500	1.328502
0.524000	1.327865
0.524500	1.329139
0.525000	1.327865
0.525500	1.329458
0.526000	1.328821
0.526500	1.328184
0.527000	1.328502
0.527500	1.329458
0.528000	1.329139
0.528500	1.328821
0.529000	1.328184
0.529500	1.327865
0.530000	1.328821
0.530500	1.328821
0.531000	1.329458
0.531500	1.328184
0.532000	1.329139
0.532500	1.327865
0.533000	1.328821
0.533500	1.328821
0.534000	1.329139
0.534500	1.328821
0.535000	1.329139
0.535500	1.328502
0.536000	1.329458
0.536500	1.329458
0.537000	1.328502
0.537500	1.328821
0.538000	1.327865
0.538500	1.328184
0.539000	1.328184
0.539500	1.329139
0.540000	1.328502
0.540500	1.329139
0.541000	1.327228
0.541500	1.329458
0.542000	1.328502
0.542500	1.329139
0.543000	1.328821
